Optical Power Monitor 4.1.4204.742

Power Meter;PM16-130
Power Meter SN;15122110
Sensor;
Sensor SN;
Sensor Type;
Wavelength;660 nm
Range;Auto;range changed during the measurement.

Start of Measurement;9/19/2025 16:16:04
Elapsed Time;00:00:54:968
Samples;904

--Statistics--
Minimum [W];1,725E-05
Maximum [W];0,04942
Mean [W];0,032583
Standard Deviation [W];0,015697
Ratio;2864,865 : 1

--Graph Data--
Time (ms);Power (W)
0,000;1,7254E-05
59,840;1,7256E-05
119,840;1,7252E-05
180,516;1,725E-05
240,516;1,7251E-05
300,195;1,7253E-05
360,195;1,7255E-05
419,875;1,7256E-05
479,875;1,7255E-05
539,585;1,7255E-05
599,585;1,7257E-05
660,231;1,7258E-05
719,231;1,7257E-05
779,910;1,7256E-05
839,910;1,7256E-05
899,589;1,7256E-05
959,589;1,7258E-05
1021,264;1,7256E-05
1079,264;1,7254E-05
1139,264;1,7257E-05
1198,790;1,7257E-05
1258,790;1,7257E-05
1319,464;1,7258E-05
1379,464;1,7259E-05
1439,143;1,7262E-05
1499,143;1,7263E-05
1558,822;1,726E-05
1618,822;1,7259E-05
1678,531;1,726E-05
1738,531;1,726E-05
1798,213;1,7265E-05
1858,213;1,7279E-05
1918,858;1,7303E-05
1978,858;1,7325E-05
2038,537;1,7367E-05
2098,537;1,7478E-05
2158,217;1,7675E-05
2218,217;1,7951E-05
2277,897;1,8284E-05
2337,897;1,8732E-05
2398,573;1,9327E-05
2457,573;1,9878E-05
2520,246;2,054E-05
2578,246;2,2208E-05
2638,246;2,4988E-05
2697,771;2,8222E-05
2757,771;3,4696E-05
2817,450;4,5639E-05
2877,450;6,3185E-05
2937,130;0,00010652
3416,844;0,0063715
3476,844;0,0068774
3537,523;0,00715
3597,523;0,0071826
3657,206;0,0071275
3717,206;0,0070975
3776,908;0,007104
3836,908;0,0071124
3897,557;0,0071156
3956,557;0,0071227
4017,236;0,0071264
4076,236;0,0071375
4136,236;0,0071484
4196,755;0,0071498
4256,755;0,0071413
4316,434;0,00713
4376,434;0,0071345
4436,146;0,0071443
4496,146;0,0071399
4555,825;0,0071319
4615,825;0,0071266
4675,472;0,0071354
4735,472;0,0071503
4796,149;0,0071485
4856,149;0,0071339
4915,827;0,0071298
4975,827;0,0071357
5035,506;0,0071395
5095,506;0,0071397
5155,186;0,0071357
5215,186;0,0071286
5274,865;0,0071174
5334,865;0,0071198
5395,543;0,0071429
5455,543;0,0071566
5515,221;0,0071486
5575,221;0,0071383
5635,221;0,0071301
5694,770;0,0071222
5754,770;0,0071225
5815,420;0,0071365
5875,420;0,0071449
5935,096;0,0071358
5995,096;0,0071246
6054,776;0,0071176
6114,776;0,0071183
6174,487;0,0071199
6234,487;0,0071387
6294,134;0,007157
6354,134;0,0071505
6413,814;0,007137
6474,814;0,0071267
6534,492;0,007123
6594,492;0,00712
6654,198;0,0071259
6715,198;0,0071371
6773,878;0,0071394
6834,878;0,0071329
6893,552;0,0071238
6954,552;0,0071183
7013,552;0,0071142
7074,045;0,0071116
7133,045;0,0071197
7194,750;0,0071329
7253,750;0,0071463
7314,433;0,0071512
7373,433;0,0071417
7435,076;0,0071275
7493,076;0,0071136
7554,757;0,0071037
7613,757;0,0071031
7674,437;0,0071057
7732,437;0,0071106
7794,115;0,0071171
7852,115;0,0071193
7914,791;0,00712
7972,791;0,0071399
8034,472;0,0072314
8093,472;0,0074943
8156,146;0,0080229
8212,146;0,0088312
8274,220;0,0097697
8332,220;0,010782
8396,890;0,011793
8871,655;0,017215
8931,458;0,017607
8991,458;0,017809
9052,138;0,017842
9112,138;0,017842
9171,814;0,017821
9231,814;0,017818
9291,493;0,017803
9351,493;0,017729
9411,174;0,017663
9471,174;0,017661
9530,852;0,017669
9590,852;0,017665
9651,530;0,01765
9711,530;0,01765
9771,237;0,017659
9831,237;0,017655
9891,885;0,017646
9950,885;0,017647
10010,885;0,017652
10070,405;0,017654
10130,405;0,017648
10190,114;0,017641
10250,114;0,01764
10310,763;0,017642
10370,763;0,017646
10430,441;0,017644
10490,441;0,017643
10550,144;0,017647
10610,144;0,017649
10669,800;0,017646
10729,800;0,017638
10790,477;0,01763
10850,477;0,01763
10910,187;0,017635
10970,187;0,017639
11029,835;0,017641
11089,835;0,017634
11149,546;0,017622
11209,546;0,017629
11270,191;0,017641
11329,191;0,017643
11389,191;0,017638
11449,710;0,017627
11509,710;0,017621
11569,390;0,017619
11629,390;0,017624
11689,069;0,017632
11749,069;0,017627
11808,748;0,017617
11868,748;0,017615
11929,425;0,017611
11989,425;0,017613
12049,105;0,017616
12109,105;0,017602
12168,795;0,017598
12228,795;0,017598
12288,498;0,017588
12348,498;0,017586
12408,141;0,017585
12468,141;0,017582
12529,839;0,017587
12587,839;0,017583
12648,544;0,017574
12708,544;0,01758
12768,544;0,017583
12827,638;0,017583
12887,638;0,017584
12948,316;0,017578
13008,316;0,01757
13067,993;0,017571
13127,993;0,017576
13187,705;0,017577
13247,705;0,017579
13307,352;0,01758
13369,352;0,017574
13427,066;0,01757
13487,066;0,017568
13547,708;0,017563
13607,708;0,017563
13667,387;0,017503
13727,387;0,017441
13787,067;0,017323
13847,067;0,017127
13906,747;0,017106
13966,747;0,017298
14026,747;0,017556
14087,264;0,018064
14147,264;0,018737
14206,942;0,019141
14266,942;0,019327
14326,621;0,019701
14386,621;0,020133
14446,312;0,020277
14506,312;0,020304
14566,009;0,020332
14626,009;0,020491
14686,658;0,020895
14746,658;0,021371
14806,336;0,021792
14866,336;0,022202
14926,016;0,022569
14986,016;0,022766
15047,690;0,022831
15105,690;0,022904
15178,348;0,022995
15225,348;0,023026
15288,045;0,022874
15346,045;0,022764
15405,729;0,022793
15465,729;0,022791
15525,729;0,022784
15585,249;0,022785
15645,249;0,022794
15704,960;0,022786
15764,960;0,022768
15824,608;0,022771
15884,608;0,022781
15945,284;0,022786
16005,284;0,022873
16064,963;0,022955
16124,963;0,022952
16184,675;0,022949
16244,675;0,022953
16304,323;0,022962
16364,323;0,022966
16425,000;0,02297
16485,000;0,022974
16544,710;0,022973
16604,710;0,022974
16664,357;0,022964
16724,357;0,022953
16786,034;0,022923
16844,034;0,02287
16905,710;0,022847
16964,710;0,022855
17024,710;0,022869
17084,232;0,022871
17144,232;0,022861
17203,912;0,022852
17263,912;0,022853
17323,591;0,022857
17383,591;0,022844
17443,280;0,022824
17503,280;0,02281
17562,949;0,022778
17622,949;0,022807
17683,626;0,022876
17743,626;0,022893
17803,305;0,022885
17863,305;0,02281
17922,985;0,022744
17982,985;0,022754
18042,693;0,022666
18102,693;0,022633
18163,342;0,022757
18224,342;0,022811
18283,020;0,022779
18342,020;0,022742
18403,719;0,022753
18462,719;0,022748
18522,719;0,022725
18582,695;0,022731
18642,695;0,022737
18702,404;0,02274
18762,404;0,022736
18822,083;0,022732
18882,083;0,022731
18941,733;0,022717
19001,733;0,022699
19062,411;0,022699
19122,411;0,022702
19182,089;0,022697
19242,089;0,022692
19301,768;0,022695
19361,768;0,022696
19421,477;0,022689
19481,477;0,022692
19541,127;0,022693
19601,127;0,022691
19661,805;0,022697
19721,805;0,0227
19781,484;0,022701
19841,484;0,022702
19901,163;0,022704
19961,163;0,022708
20021,163;0,022705
20080,682;0,0227
20140,682;0,022698
20201,359;0,022696
20261,359;0,022695
20321,038;0,022702
20381,038;0,022715
20440,717;0,022726
20500,717;0,022748
20560,396;0,022783
20620,396;0,022974
20681,073;0,023512
20741,073;0,024222
20800,752;0,024856
20860,752;0,025478
20920,431;0,026056
20980,431;0,026516
21042,106;0,027058
21100,106;0,027766
21166,771;0,02865
21219,771;0,029503
21280,468;0,030122
21339,468;0,030582
21401,143;0,031008
21460,143;0,031658
21520,143;0,032441
21579,688;0,032976
21639,688;0,033344
21699,344;0,03374
21759,344;0,034114
21819,023;0,034619
21879,023;0,035228
21939,701;0,035747
21999,701;0,036107
22059,408;0,036377
22119,408;0,036615
22179,062;0,036767
22239,062;0,036831
22300,733;0,036828
22358,733;0,036824
22419,415;0,036818
22479,415;0,03681
22539,094;0,036811
22599,094;0,036808
22658,773;0,036811
22718,773;0,036823
22780,448;0,03683
22838,448;0,036828
22898,448;0,036823
22957,972;0,036823
23017,972;0,036826
23078,655;0,036828
23138,655;0,036828
23198,357;0,036829
23258,357;0,036831
23318,006;0,036827
23378,006;0,036821
23437,687;0,036812
23497,687;0,036785
23557,366;0,036748
23617,366;0,036702
23678,042;0,036587
23738,042;0,03645
23797,721;0,036393
23857,721;0,036384
23917,430;0,036385
23977,430;0,036389
24037,081;0,036387
24097,081;0,036381
24158,754;0,036375
24217,754;0,03637
24277,437;0,036364
24337,437;0,03636
24397,437;0,036359
24456,986;0,036357
24516,986;0,03634
24576,658;0,036316
24636,658;0,036305
24697,312;0,036304
24757,312;0,036308
24816,990;0,036307
24876,990;0,0363
24936,669;0,036295
24996,669;0,036298
25056,378;0,036297
25116,378;0,036289
25176,057;0,036282
25236,057;0,036274
25296,706;0,036269
25355,706;0,036274
25416,385;0,036277
25476,385;0,036273
25536,064;0,036266
25596,064;0,036264
25655,743;0,036268
25715,743;0,03627
25775,422;0,036268
25835,422;0,036262
25895,422;0,03626
25955,939;0,036261
26015,939;0,036263
26075,617;0,036264
26135,617;0,036262
26195,297;0,036259
26255,297;0,036255
26314,976;0,036257
26374,976;0,036254
26435,653;0,036248
26495,653;0,036244
26555,366;0,036241
26615,366;0,036242
26675,011;0,036246
26735,011;0,036247
26794,691;0,036246
26854,691;0,036247
26914,370;0,036246
26974,370;0,036245
27035,054;0,036245
27095,054;0,036246
27154,755;0,03625
27214,755;0,036251
27274,406;0,036251
27334,406;0,036254
27394,406;0,036254
27453,924;0,036248
27513,924;0,036243
27574,612;0,036242
27634,612;0,03624
27694,281;0,036236
27754,281;0,036234
27813,959;0,036234
27873,959;0,036235
27933,639;0,036235
27993,639;0,036232
28053,350;0,036231
28113,350;0,036236
28173,996;0,036244
28233,996;0,036249
28293,675;0,036249
28353,675;0,036247
28413,353;0,036257
28473,353;0,036266
28533,033;0,036259
28593,033;0,036259
28652,712;0,036267
28712,712;0,036268
28773,389;0,036268
28833,389;0,036271
28893,069;0,036274
28953,069;0,036274
29013,069;0,03627
29072,619;0,036267
29132,619;0,036257
29192,302;0,036247
29252,302;0,036244
29312,944;0,036246
29372,944;0,036248
29432,623;0,036246
29492,623;0,03624
29552,325;0,036233
29612,325;0,036232
29671,981;0,036234
29731,981;0,036232
29792,657;0,03623
29852,657;0,036227
29912,337;0,03623
29972,337;0,036244
30032,049;0,036336
30092,049;0,036599
30151,727;0,036977
30211,727;0,037391
30272,372;0,037878
30332,372;0,038355
30396,041;0,038861
30451,041;0,03943
30512,041;0,040015
30571,604;0,040628
30631,604;0,04111
30691,251;0,041433
30751,251;0,041616
30810,929;0,041711
30870,929;0,041782
30931,606;0,041807
30991,606;0,041806
31051,285;0,041802
31111,285;0,041801
31170,969;0,041802
31230,969;0,041799
31290,677;0,041792
31350,677;0,041783
31410,323;0,041773
31470,323;0,041758
31531,000;0,041769
31591,000;0,041796
31650,680;0,041798
31710,680;0,041798
31770,360;0,041794
31830,360;0,041779
31890,039;0,041772
31950,039;0,041776
32010,039;0,04178
32070,554;0,041783
32130,554;0,04178
32190,233;0,041785
32250,233;0,041785
32309,941;0,041779
32369,941;0,041783
32429,592;0,041792
32489,592;0,041798
32549,270;0,0418
32609,270;0,041801
32669,948;0,041798
32729,948;0,0418
32789,637;0,041803
32849,637;0,041799
32909,307;0,041791
32969,307;0,041785
33028,985;0,041783
33088,985;0,041782
33148,667;0,041779
33208,667;0,041777
33269,350;0,041777
33329,350;0,041779
33390,019;0,041777
33449,019;0,041776
33509,019;0,041773
33568,551;0,041766
33628,551;0,041767
33688,219;0,041772
33748,219;0,041774
33808,897;0,041773
33868,897;0,041771
33928,575;0,041771
33988,575;0,041768
34048,258;0,041766
34108,258;0,041767
34167,965;0,041764
34227,965;0,041762
34287,642;0,041758
34347,642;0,041753
34408,291;0,041747
34468,291;0,041747
34527,969;0,04175
34587,969;0,041753
34647,649;0,04175
34707,649;0,041748
34767,328;0,041747
34827,328;0,041743
34888,004;0,04174
34947,004;0,041739
35007,683;0,041737
35067,683;0,041734
35127,683;0,041724
35187,236;0,041703
35247,236;0,04169
35306,913;0,041688
35366,913;0,041689
35426,593;0,041691
35486,593;0,041694
35547,237;0,041694
35607,237;0,041689
35666,917;0,041687
35726,917;0,041686
35786,602;0,041688
35846,602;0,041687
35906,276;0,041686
35966,276;0,041683
36025,955;0,041679
36085,955;0,041675
36146,632;0,041666
36206,632;0,041663
36266,311;0,041756
36326,311;0,0421
36388,983;0,042687
36445,983;0,043301
36510,657;0,043934
36565,657;0,044511
36625,657;0,044953
36686,193;0,04532
36746,193;0,045581
36805,865;0,045785
36865,865;0,046004
36925,545;0,046173
36985,545;0,04624
37045,253;0,046282
37105,253;0,046296
37164,903;0,046293
37224,903;0,046291
37285,579;0,046291
37345,579;0,046285
37405,259;0,046274
37465,259;0,046267
37524,967;0,046261
37584,967;0,046258
37644,650;0,046257
37704,650;0,046252
37765,294;0,046249
37825,294;0,046249
37884,980;0,046249
37944,980;0,046249
38005,674;0,046247
38063,674;0,046242
38124,674;0,046241
38184,204;0,046241
38244,204;0,04623
38303,852;0,046213
38363,852;0,046178
38424,528;0,046141
38484,528;0,046134
38544,239;0,046139
38604,239;0,046156
38663,896;0,046164
38723,896;0,046158
38783,599;0,046171
38843,599;0,046167
38903,278;0,046161
38963,278;0,046148
39023,923;0,046105
39083,923;0,04609
39143,633;0,046087
39203,633;0,046054
39263,280;0,046024
39323,280;0,04603
39382,961;0,046049
39442,961;0,046067
39502,639;0,046086
39562,639;0,046101
39622,639;0,046108
39683,155;0,046108
39743,155;0,046103
39802,835;0,0461
39862,835;0,046102
39922,513;0,046106
39982,513;0,046109
40042,193;0,046115
40102,193;0,046121
40162,882;0,046125
40222,882;0,046128
40282,581;0,04613
40342,581;0,04613
40402,229;0,046132
40462,229;0,046136
40521,907;0,046139
40581,907;0,046141
40641,587;0,046146
40701,587;0,046148
40762,266;0,046152
40822,266;0,046159
40881,943;0,04616
40941,943;0,046161
41002,621;0,046165
41061,621;0,04617
41121,621;0,046173
41181,173;0,046171
41241,173;0,046171
41301,818;0,046172
41361,818;0,046165
41421,497;0,046164
41481,497;0,046168
41541,178;0,046167
41601,178;0,046166
41660,855;0,046165
41720,855;0,046163
41780,535;0,046162
41840,535;0,046159
41901,212;0,046156
41961,212;0,046157
42020,891;0,046156
42079,891;0,046152
42140,570;0,046148
42200,570;0,04614
42260,250;0,04613
42320,250;0,046122
42379,958;0,046118
42439,958;0,046116
42500,606;0,046107
42560,606;0,046101
42619,606;0,046102
42680,148;0,046109
42740,148;0,046113
42799,833;0,046111
42859,833;0,046109
42919,515;0,046104
42979,515;0,046104
43040,159;0,046109
43100,159;0,046105
43159,840;0,046102
43219,840;0,046102
43279,519;0,0461
43339,519;0,046096
43399,230;0,046097
43459,230;0,046158
43519,880;0,046605
43579,880;0,047577
43639,555;0,048671
43699,555;0,04919
43759,256;0,049204
43819,256;0,049174
43880,931;0,049179
43938,931;0,049225
44002,615;0,049235
44058,615;0,049239
44118,615;0,049238
44178,144;0,049238
44238,144;0,049237
44298,819;0,049238
44358,819;0,049238
44418,466;0,049237
44478,466;0,049238
44538,145;0,049236
44598,145;0,049235
44657,826;0,049238
44717,826;0,049235
44778,503;0,049232
44838,503;0,049232
44898,181;0,049231
44958,181;0,049228
45017,861;0,049227
45077,861;0,04923
45137,540;0,049228
45197,540;0,049226
45257,220;0,049226
45317,220;0,049212
45377,896;0,049189
45437,896;0,049186
45497,575;0,049195
45557,575;0,049201
45618,252;0,049208
45677,252;0,04921
45737,252;0,049215
45796,773;0,049218
45856,773;0,049216
45917,450;0,049218
45977,450;0,049217
46037,129;0,049211
46097,129;0,049213
46156,810;0,049218
46216,810;0,049216
46276,510;0,049216
46336,510;0,049214
46396,167;0,049214
46456,167;0,049219
46516,844;0,049224
46576,844;0,049229
46636,524;0,049227
46695,524;0,049221
46756,203;0,049223
46816,203;0,049223
46875,882;0,049221
46935,882;0,049217
46995,561;0,049214
47055,561;0,049215
47117,259;0,04921
47175,259;0,049199
47235,259;0,049192
47295,757;0,049189
47355,757;0,049178
47415,436;0,049171
47475,436;0,049175
47535,115;0,049172
47595,115;0,04917
47655,792;0,049171
47715,792;0,049171
47775,471;0,049172
47835,471;0,049173
47895,151;0,049173
47955,151;0,049169
48015,838;0,049167
48075,838;0,049165
48134,513;0,049164
48194,513;0,049168
48255,186;0,049171
48315,186;0,049175
48374,866;0,049179
48434,866;0,049183
48494,544;0,049185
48554,544;0,049184
48615,222;0,049179
48674,222;0,049177
48734,222;0,04917
48793,743;0,049161
48853,743;0,049157
48914,419;0,049154
48974,419;0,049152
49034,100;0,04915
49094,100;0,049146
49153,807;0,04914
49213,807;0,049135
49273,480;0,049135
49333,480;0,049138
49394,134;0,049137
49454,134;0,049136
49513,813;0,049125
49573,813;0,049115
49633,493;0,049118
49693,493;0,049116
49753,172;0,049109
49813,172;0,0491
49873,849;0,049101
49933,849;0,049069
49993,527;0,049035
50053,527;0,04904
50113,208;0,049049
50173,208;0,049055
50233,208;0,049059
50292,726;0,049061
50352,726;0,049058
50412,439;0,049056
50472,439;0,049057
50533,082;0,04906
50593,082;0,04906
50652,761;0,049056
50712,761;0,049057
50772,445;0,049058
50832,445;0,049056
50892,119;0,049055
50952,119;0,049051
51011,799;0,04905
51071,799;0,049047
51132,482;0,049043
51192,482;0,049042
51252,156;0,049037
51311,156;0,049033
51371,863;0,049036
51431,863;0,049033
51491,514;0,049009
51551,514;0,048946
51613,198;0,048909
51672,198;0,04893
51732,198;0,048952
51791,719;0,04897
51851,719;0,048992
51911,411;0,048979
51971,411;0,048987
52031,067;0,048982
52091,067;0,04895
52150,747;0,048944
52210,747;0,048933
52271,425;0,048954
52331,425;0,04874
52391,109;0,048611
52451,109;0,048925
52510,814;0,049074
52570,814;0,049207
52630,461;0,049389
52690,461;0,049335
52750,141;0,049298
52810,141;0,049284
52870,831;0,049275
52930,831;0,049281
52990,498;0,049297
53050,498;0,049293
53111,174;0,049237
53170,174;0,049235
53230,174;0,049259
53289,728;0,049246
53349,728;0,049233
53410,372;0,049314
53470,372;0,049174
53530,052;0,049054
53590,052;0,049301
53649,731;0,04942
53709,731;0,049368
53769,409;0,049381
53829,409;0,049407
53889,117;0,049253
53949,117;0,049155
54009,766;0,049268
54069,766;0,049358
54129,445;0,049378
54189,445;0,049334
54250,122;0,049269
54309,122;0,049181
54368,836;0,04922
54428,836;0,049117
54489,480;0,04888
54548,480;0,049096
54608,480;0,049351
54668,999;0,04938
54728,999;0,049397
54788,678;0,049406
54848,678;0,049406
54908,358;0,049402
54968,358;0,049402
